Kmac Spectrometer Data File
--- Measurement Setting ---
Type: Absorbance Spectrum
Date: Tue Dec 04 17:16:33 2018
User: (Reserved by KMAC)
Serial: (Reserved by KMAC)
Channel: No. 1
Integration Time: 120
Average: 10
Boxcar: 5
Electrical Dark: (Reserved by KMAC)
Time Normalize: (Reserved by KMAC)
Dual-beam: (Reserved by KMAC)
Reference Ch: (Reserved by KMAC)
--- Measurement Data ---
    0        341.9      0.23615
    1      342.363     0.237898
    2      342.825     0.235805
    3      343.287     0.236505
    4       343.75     0.233026
    5      344.212     0.231808
    6      344.674     0.232903
    7      345.136     0.236761
    8      345.598     0.237117
    9       346.06     0.238098
   10      346.522     0.238329
   11      346.984     0.234232
   12      347.445     0.233201
   13      347.907     0.233378
   14      348.368     0.232255
   15       348.83     0.237446
   16      349.291     0.244994
   17      349.752     0.249337
   18      350.213     0.251872
   19      350.674     0.258886
   20      351.135     0.269847
   21      351.596     0.280657
   22      352.057     0.293595
   23      352.517     0.307906
   24      352.978     0.323946
   25      353.439     0.339671
   26      353.899     0.351473
   27      354.359     0.361692
   28       354.82     0.367442
   29       355.28     0.370411
   30       355.74     0.371341
   31        356.2     0.371757
   32       356.66     0.374998
   33       357.12     0.376199
   34       357.58     0.375995
   35      358.039     0.378644
   36      358.499     0.380158
   37      358.958     0.382762
   38      359.418     0.384575
   39      359.877      0.39261
   40      360.336     0.407664
   41      360.796      0.42188
   42      361.255     0.431893
   43      361.714     0.438635
   44      362.173     0.446397
   45      362.631     0.453329
   46       363.09     0.455202
   47      363.549     0.459987
   48      364.007     0.465887
   49      364.466     0.469176
   50      364.924     0.470215
   51      365.383     0.471595
   52      365.841     0.473383
   53      366.299     0.477502
   54      366.757     0.484807
   55      367.215     0.492039
   56      367.673      0.49953
   57      368.131     0.507942
   58      368.588     0.517199
   59      369.046     0.524441
   60      369.504     0.531953
   61      369.961     0.536731
   62      370.418     0.536288
   63      370.876     0.538514
   64      371.333     0.543518
   65       371.79     0.545728
   66      372.247     0.546797
   67      372.704     0.549134
   68      373.161     0.553354
   69      373.618     0.556144
   70      374.074     0.559207
   71      374.531     0.563266
   72      374.987     0.571189
   73      375.444     0.582191
   74        375.9     0.591628
   75      376.356     0.599882
   76      376.812     0.611512
   77      377.269     0.625974
   78      377.725     0.636422
   79       378.18     0.644928
   80      378.636     0.653231
   81      379.092     0.659791
   82      379.548     0.664821
   83      380.003      0.66867
   84      380.459      0.67151
   85      380.914     0.674606
   86      381.369     0.678939
   87      381.825     0.681164
   88       382.28     0.682379
   89      382.735     0.688276
   90       383.19     0.694854
   91      383.645     0.702762
   92      384.099      0.71042
   93      384.554     0.719391
   94      385.009     0.728321
   95      385.463     0.735123
   96      385.918     0.740326
   97      386.372     0.742788
   98      386.826      0.74531
   99       387.28     0.747208
  100      387.734     0.750557
  101      388.188     0.754823
  102      388.642     0.755319
  103      389.096     0.759181
  104       389.55     0.766185
  105      390.004     0.772293
  106      390.457     0.778719
  107      390.911     0.786833
  108      391.364     0.795784
  109      391.817     0.804653
  110       392.27     0.815823
  111      392.724      0.82521
  112      393.177     0.832638
  113       393.63     0.843847
  114      394.082     0.857529
  115      394.535      0.86969
  116      394.988     0.881481
  117       395.44     0.892383
  118      395.893     0.901369
  119      396.345     0.911488
  120      396.798     0.921109
  121       397.25     0.927995
  122      397.702     0.934406
  123      398.154     0.943152
  124      398.606     0.948438
  125      399.058     0.949968
  126       399.51     0.954093
  127      399.962     0.958376
  128      400.413     0.964815
  129      400.865     0.977994
  130      401.316     0.992179
  131      401.768      1.00538
  132      402.219      1.01859
  133       402.67      1.03198
  134      403.121      1.04316
  135      403.572      1.05472
  136      404.023      1.06512
  137      404.474      1.07124
  138      404.925      1.07889
  139      405.375      1.08721
  140      405.826        1.092
  141      406.276       1.0967
  142      406.727      1.10222
  143      407.177       1.1055
  144      407.627      1.10924
  145      408.078      1.11432
  146      408.528      1.11809
  147      408.978      1.12258
  148      409.427      1.12649
  149      409.877      1.12946
  150      410.327      1.13712
  151      410.777      1.14366
  152      411.226       1.1452
  153      411.675       1.1469
  154      412.125      1.14901
  155      412.574      1.14664
  156      413.023      1.14342
  157      413.472      1.14343
  158      413.921      1.14342
  159       414.37      1.14462
  160      414.819      1.14458
  161      415.268      1.13959
  162      415.716      1.13644
  163      416.165      1.13713
  164      416.613      1.13667
  165      417.062      1.13551
  166       417.51      1.13447
  167      417.958      1.13302
  168      418.406      1.12897
  169      418.854      1.12408
  170      419.302      1.11842
  171       419.75      1.11096
  172      420.198      1.10234
  173      420.645      1.09166
  174      421.093      1.08109
  175       421.54      1.07162
  176      421.988      1.06232
  177      422.435      1.05338
  178      422.882       1.0454
  179      423.329      1.03992
  180      423.776      1.03379
  181      424.223      1.02668
  182       424.67      1.02124
  183      425.117      1.01661
  184      425.564      1.01042
  185       426.01      1.00143
  186      426.457     0.991662
  187      426.903     0.982278
  188      427.349     0.973876
  189      427.795      0.96449
  190      428.242     0.953307
  191      428.688     0.943852
  192      429.134     0.935093
  193      429.579     0.925046
  194      430.025     0.914889
  195      430.471     0.905697
  196      430.916     0.897691
  197      431.362     0.889848
  198      431.807     0.881319
  199      432.253     0.872502
  200      432.698     0.863719
  201      433.143     0.854898
  202      433.588     0.845324
  203      434.033     0.836267
  204      434.478     0.828309
  205      434.923     0.820641
  206      435.367     0.812709
  207      435.812     0.803912
  208      436.256      0.79482
  209      436.701     0.787136
  210      437.145     0.780166
  211      437.589      0.77272
  212      438.034       0.7651
  213      438.478     0.757595
  214      438.922     0.749803
  215      439.365     0.742254
  216      439.809     0.734546
  217      440.253     0.727199
  218      440.697      0.72072
  219       441.14     0.714635
  220      441.583     0.708086
  221      442.027      0.70189
  222       442.47     0.696652
  223      442.913     0.691554
  224      443.356     0.686246
  225      443.799     0.680513
  226      444.242     0.674954
  227      444.685     0.669779
  228      445.128     0.664612
  229       445.57     0.659751
  230      446.013     0.655136
  231      446.455     0.650472
  232      446.897     0.645365
  233       447.34     0.639991
  234      447.782     0.634946
  235      448.224     0.630242
  236      448.666     0.625957
  237      449.108     0.621287
  238      449.549     0.616115
  239      449.991     0.611163
  240      450.433     0.606417
  241      450.874     0.601642
  242      451.316      0.59686
  243      451.757     0.591983
  244      452.198     0.586878
  245      452.639     0.581621
  246       453.08     0.576351
  247      453.521     0.571015
  248      453.962     0.566154
  249      454.403     0.562034
  250      454.844     0.557719
  251      455.284     0.553139
  252      455.725     0.548763
  253      456.165     0.544436
  254      456.606     0.540335
  255      457.046     0.536617
  256      457.486     0.533084
  257      457.926     0.529539
  258      458.366     0.525963
  259      458.806     0.522135
  260      459.246     0.518326
  261      459.685     0.514837
  262      460.125     0.511035
  263      460.564     0.506935
  264      461.004     0.503018
  265      461.443     0.499285
  266      461.882      0.49581
  267      462.321      0.49246
  268       462.76     0.489329
  269      463.199     0.486612
  270      463.638     0.484179
  271      464.077     0.481502
  272      464.516     0.478476
  273      464.954     0.475838
  274      465.393     0.473522
  275      465.831     0.471167
  276      466.269     0.468873
  277      466.708     0.466578
  278      467.146     0.464062
  279      467.584     0.461264
  280      468.022     0.458493
  281      468.459     0.455661
  282      468.897     0.452623
  283      469.335     0.449695
  284      469.772     0.446643
  285       470.21     0.443566
  286      470.647     0.440652
  287      471.084     0.437594
  288      471.522     0.434445
  289      471.959     0.431588
  290      472.396     0.429196
  291      472.833     0.426801
  292      473.269     0.424251
  293      473.706      0.42194
  294      474.143      0.41972
  295      474.579     0.417561
  296      475.016     0.415271
  297      475.452     0.412964
  298      475.888     0.410914
  299      476.325     0.408744
  300      476.761     0.406337
  301      477.197     0.403857
  302      477.633     0.401434
  303      478.068     0.399185
  304      478.504     0.397116
  305       478.94     0.395145
  306      479.375     0.393279
  307      479.811     0.391592
  308      480.246     0.389751
  309      480.681     0.387616
  310      481.116     0.385626
  311      481.551     0.383756
  312      481.986      0.38166
  313      482.421     0.379498
  314      482.856     0.377421
  315      483.291     0.375225
  316      483.725     0.373027
  317       484.16       0.3708
  318      484.594     0.368514
  319      485.028     0.366416
  320      485.462     0.364536
  321      485.897     0.362709
  322      486.331     0.361063
  323      486.765     0.359741
  324      487.198     0.358517
  325      487.632      0.35737
  326      488.066     0.356295
  327      488.499      0.35517
  328      488.933     0.354013
  329      489.366     0.352848
  330      489.799     0.351806
  331      490.233     0.350952
  332      490.666     0.350155
  333      491.099      0.34914
  334      491.532     0.347929
  335      491.964     0.346765
  336      492.397     0.345625
  337       492.83     0.344503
  338      493.262     0.343546
  339      493.695     0.342871
  340      494.127     0.342402
  341      494.559     0.341895
  342      494.991     0.341258
  343      495.423     0.340566
  344      495.855     0.339975
  345      496.287       0.3395
  346      496.719     0.339082
  347      497.151     0.338646
  348      497.582     0.338155
  349      498.014     0.337529
  350      498.445     0.336785
  351      498.876      0.33592
  352      499.307     0.335105
  353      499.739     0.334449
  354       500.17     0.333994
  355        500.6      0.33352
  356      501.031     0.332923
  357      501.462     0.332374
  358      501.893     0.331711
  359      502.323     0.331068
  360      502.754     0.330514
  361      503.184     0.329771
  362      503.614      0.32917
  363      504.044     0.328739
  364      504.474     0.328197
  365      504.904     0.327424
  366      505.334     0.326639
  367      505.764     0.326013
  368      506.194     0.325287
  369      506.623     0.324624
  370      507.053     0.324054
  371      507.482     0.323567
  372      507.911     0.323196
  373      508.341     0.322607
  374       508.77     0.321772
  375      509.199     0.320902
  376      509.628     0.320109
  377      510.056     0.319384
  378      510.485     0.318544
  379      510.914     0.317698
  380      511.342     0.316951
  381      511.771      0.31629
  382      512.199     0.315543
  383      512.627     0.314883
  384      513.055     0.314378
  385      513.484     0.313833
  386      513.912     0.313207
  387      514.339     0.312529
  388      514.767     0.312032
  389      515.195     0.311568
  390      515.622     0.310863
  391       516.05     0.310027
  392      516.477     0.309212
  393      516.905     0.308594
  394      517.332     0.307932
  395      517.759     0.307169
  396      518.186     0.306417
  397      518.613      0.30558
  398       519.04     0.304861
  399      519.466     0.304249
  400      519.893     0.303693
  401      520.319     0.303188
  402      520.746     0.302639
  403      521.172     0.301994
  404      521.598     0.301099
  405      522.025     0.300182
  406      522.451     0.299476
  407      522.877     0.298901
  408      523.302     0.298461
  409      523.728     0.298032
  410      524.154     0.297415
  411      524.579     0.296753
  412      525.005     0.296361
  413       525.43     0.296107
  414      525.855     0.295737
  415      526.281     0.295531
  416      526.706     0.295484
  417      527.131     0.295351
  418      527.556     0.295263
  419       527.98     0.295326
  420      528.405     0.295362
  421       528.83     0.295263
  422      529.254     0.295074
  423      529.679     0.294706
  424      530.103     0.294227
  425      530.527      0.29383
  426      530.951     0.293453
  427      531.375     0.293115
  428      531.799     0.292754
  429      532.223     0.292117
  430      532.647     0.291074
  431       533.07     0.289718
  432      533.494     0.288106
  433      533.917     0.286342
  434      534.341     0.284424
  435      534.764     0.282338
  436      535.187     0.279982
  437       535.61     0.277359
  438      536.033     0.274538
  439      536.456     0.271497
  440      536.879     0.268372
  441      537.301     0.265267
  442      537.724     0.262168
  443      538.146     0.259252
  444      538.569     0.256498
  445      538.991     0.253765
  446      539.413     0.251086
  447      539.835     0.248396
  448      540.257     0.245645
  449      540.679     0.242799
  450      541.101     0.239898
  451      541.522     0.236925
  452      541.944     0.233824
  453      542.366      0.23062
  454      542.787     0.227281
  455      543.208     0.223804
  456      543.629     0.220347
  457      544.051     0.216947
  458      544.472     0.213473
  459      544.892     0.209916
  460      545.313     0.206304
  461      545.734     0.202597
  462      546.155     0.198876
  463      546.575     0.195302
  464      546.995     0.191906
  465      547.416     0.188562
  466      547.836     0.185247
  467      548.256     0.182069
  468      548.676     0.178978
  469      549.096     0.176093
  470      549.516     0.173435
  471      549.936      0.17098
  472      550.355     0.168777
  473      550.775     0.166734
  474      551.194     0.164745
  475      551.614     0.162798
  476      552.033     0.160952
  477      552.452     0.159196
  478      552.871     0.157439
  479       553.29     0.155643
  480      553.709     0.153999
  481      554.127     0.152472
  482      554.546     0.150894
  483      554.965     0.149306
  484      555.383     0.147787
  485      555.801     0.146355
  486       556.22     0.145005
  487      556.638     0.143765
  488      557.056     0.142586
  489      557.474     0.141453
  490      557.892      0.14037
  491      558.309     0.139221
  492      558.727     0.138004
  493      559.145     0.136754
  494      559.562     0.135579
  495       559.98     0.134465
  496      560.397     0.133271
  497      560.814     0.132012
  498      561.231     0.130727
  499      561.648     0.129494
  500      562.065     0.128233
  501      562.482     0.126918
  502      562.898     0.125593
  503      563.315     0.124176
  504      563.731     0.122728
  505      564.148     0.121141
  506      564.564     0.119387
  507       564.98     0.117728
  508      565.396     0.116134
  509      565.812     0.114576
  510      566.228     0.113072
  511      566.644     0.111651
  512       567.06     0.110322
  513      567.475     0.109056
  514      567.891     0.108012
  515      568.306     0.107141
  516      568.721     0.106437
  517      569.136     0.105983
  518      569.552     0.105604
  519      569.967     0.105235
  520      570.381     0.104823
  521      570.796     0.104226
  522      571.211     0.103512
  523      571.625     0.102831
  524       572.04     0.102205
  525      572.454     0.101482
  526      572.869     0.100707
  527      573.283     0.100095
  528      573.697     0.099511
  529      574.111    0.0988436
  530      574.525    0.0981667
  531      574.939    0.0975028
  532      575.352    0.0970418
  533      575.766    0.0966631
  534      576.179    0.0961396
  535      576.593    0.0956497
  536      577.006    0.0951961
  537      577.419    0.0946748
  538      577.832    0.0940225
  539      578.245    0.0933251
  540      578.658    0.0926835
  541      579.071    0.0921202
  542      579.484    0.0916155
  543      579.896    0.0910097
  544      580.309    0.0903427
  545      580.721    0.0897176
  546      581.133    0.0890522
  547      581.546    0.0883834
  548      581.958    0.0877632
  549       582.37     0.087135
  550      582.781    0.0864617
  551      583.193    0.0857632
  552      583.605    0.0850407
  553      584.017     0.084317
  554      584.428    0.0835478
  555      584.839    0.0827538
  556      585.251    0.0818287
  557      585.662     0.080673
  558      586.073    0.0795272
  559      586.484    0.0783533
  560      586.895    0.0770436
  561      587.306    0.0756611
  562      587.716     0.074247
  563      588.127    0.0728285
  564      588.537    0.0713631
  565      588.948    0.0697874
  566      589.358    0.0682035
  567      589.768    0.0668492
  568      590.178    0.0656399
  569      590.588    0.0642939
  570      590.998    0.0629193
  571      591.408    0.0616644
  572      591.817    0.0604542
  573      592.227    0.0592178
  574      592.636    0.0579454
  575      593.046    0.0567034
  576      593.455    0.0556254
  577      593.864    0.0546479
  578      594.273    0.0536125
  579      594.682    0.0525563
  580      595.091    0.0515614
  581        595.5    0.0506498
  582      595.908    0.0498333
  583      596.317    0.0490826
  584      596.725    0.0484637
  585      597.134    0.0480527
  586      597.542    0.0477632
  587       597.95    0.0474775
  588      598.358    0.0471199
  589      598.766    0.0468535
  590      599.174    0.0467895
  591      599.582     0.046871
  592      599.989    0.0469093
  593      600.397    0.0468624
  594      600.804    0.0468763
  595      601.212    0.0469221
  596      601.619    0.0469378
  597      602.026    0.0470172
  598      602.433    0.0471766
  599       602.84    0.0472621
  600      603.247    0.0474199
  601      603.654    0.0478181
  602       604.06    0.0484049
  603      604.467    0.0492062
  604      604.873    0.0501706
  605      605.279    0.0513153
  606      605.686    0.0526764
  607      606.092    0.0542737
  608      606.498    0.0560295
  609      606.904    0.0579739
  610      607.309    0.0602888
  611      607.715    0.0627351
  612      608.121    0.0649923
  613      608.526     0.067185
  614      608.932    0.0695334
  615      609.337    0.0719887
  616      609.742    0.0741967
  617      610.147    0.0764372
  618      610.552    0.0789342
  619      610.957    0.0814772
  620      611.362    0.0841161
  621      611.766    0.0869449
  622      612.171    0.0899684
  623      612.576    0.0932325
  624       612.98    0.0967157
  625      613.384     0.100242
  626      613.788     0.104015
  627      614.192     0.108378
  628      614.596     0.112881
  629          615     0.117078
  630      615.404     0.121213
  631      615.808     0.125432
  632      616.211     0.129636
  633      616.615     0.133799
  634      617.018     0.138005
  635      617.421     0.142223
  636      617.824      0.14647
  637      618.227     0.150554
  638       618.63     0.154419
  639      619.033     0.158256
  640      619.436     0.162187
  641      619.838     0.166288
  642      620.241     0.170365
  643      620.643       0.1743
  644      621.046     0.178173
  645      621.448     0.181909
  646       621.85     0.185592
  647      622.252     0.189395
  648      622.654      0.19323
  649      623.056     0.196864
  650      623.457     0.200277
  651      623.859     0.203685
  652       624.26     0.206977
  653      624.662     0.210167
  654      625.063     0.213333
  655      625.464     0.216254
  656      625.865     0.218939
  657      626.266     0.221401
  658      626.667     0.223445
  659      627.068     0.225204
  660      627.468      0.22696
  661      627.869     0.228591
  662      628.269     0.229796
  663       628.67      0.23065
  664       629.07     0.231327
  665       629.47     0.231889
  666       629.87      0.23246
  667       630.27     0.232933
  668       630.67     0.233162
  669       631.07     0.233422
  670      631.469      0.23372
  671      631.869     0.233775
  672      632.268     0.233552
  673      632.667     0.233322
  674      633.067     0.233065
  675      633.466     0.232593
  676      633.865      0.23194
  677      634.264     0.231041
  678      634.662     0.230013
  679      635.061     0.228907
  680       635.46     0.227433
  681      635.858     0.225764
  682      636.256     0.224117
  683      636.655     0.222447
  684      637.053     0.220657
  685      637.451     0.218759
  686      637.849     0.216867
  687      638.247     0.214983
  688      638.644     0.213171
  689      639.042     0.211408
  690       639.44     0.209551
  691      639.837     0.207634
  692      640.234     0.205472
  693      640.631     0.203055
  694      641.029     0.200724
  695      641.426     0.198494
  696      641.822     0.196338
  697      642.219     0.194168
  698      642.616     0.191963
  699      643.013     0.189659
  700      643.409     0.187209
  701      643.805     0.184853
  702      644.202     0.182636
  703      644.598     0.180687
  704      644.994      0.17904
  705       645.39     0.177445
  706      645.786     0.175737
  707      646.181     0.173916
  708      646.577     0.172062
  709      646.973     0.170163
  710      647.368     0.168217
  711      647.763     0.166285
  712      648.158     0.164337
  713      648.554     0.162339
  714      648.949     0.160293
  715      649.344     0.158183
  716      649.738     0.156016
  717      650.133      0.15394
  718      650.528     0.151959
  719      650.922     0.150067
  720      651.316     0.148264
  721      651.711      0.14651
  722      652.105     0.144803
  723      652.499     0.143153
  724      652.893       0.1416
  725      653.287     0.139978
  726       653.68     0.138153
  727      654.074     0.136175
  728      654.468     0.134157
  729      654.861     0.132155
  730      655.254     0.130074
  731      655.648     0.127902
  732      656.041     0.125775
  733      656.434     0.123777
  734      656.827     0.121774
  735      657.219     0.119729
  736      657.612     0.117767
  737      658.005      0.11601
  738      658.397      0.11433
  739      658.789     0.112578
  740      659.182     0.110866
  741      659.574     0.109225
  742      659.966     0.107701
  743      660.358     0.106295
  744       660.75     0.104797
  745      661.141     0.103285
  746      661.533     0.101834
  747      661.924      0.10035
  748      662.316    0.0988148
  749      662.707    0.0973702
  750      663.098    0.0959443
  751      663.489     0.094338
  752       663.88    0.0926151
  753      664.271    0.0907939
  754      664.662    0.0889327
  755      665.053    0.0871767
  756      665.443    0.0855582
  757      665.834     0.083993
  758      666.224    0.0824603
  759      666.614     0.081019
  760      667.004    0.0796917
  761      667.394    0.0784809
  762      667.784    0.0774005
  763      668.174    0.0764663
  764      668.564    0.0756591
  765      668.953     0.074767
  766      669.343     0.073744
  767      669.732    0.0726729
  768      670.122     0.071625
  769      670.511    0.0706532
  770        670.9     0.069634
  771      671.289    0.0685659
  772      671.678    0.0675549
  773      672.066    0.0665266
  774      672.455    0.0654721
  775      672.843    0.0644442
  776      673.232    0.0634594
  777       673.62    0.0625785
  778      674.008     0.061745
  779      674.396    0.0608448
  780      674.784    0.0598116
  781      675.172    0.0587239
  782       675.56    0.0576303
  783      675.948    0.0565957
  784      676.335    0.0555916
  785      676.723    0.0545862
  786       677.11    0.0535171
  787      677.497    0.0523967
  788      677.884    0.0513192
  789      678.271    0.0502821
  790      678.658     0.049283
  791      679.045    0.0483174
  792      679.432    0.0474154
  793      679.818    0.0464327
  794      680.205    0.0453788
  795      680.591    0.0444497
  796      680.978    0.0436537
  797      681.364    0.0429848
  798       681.75    0.0424798
  799      682.136    0.0420308
  800      682.522    0.0415023
  801      682.907    0.0409149
  802      683.293    0.0403574
  803      683.678    0.0397677
  804      684.064    0.0391689
  805      684.449    0.0385159
  806      684.834    0.0377217
  807      685.219    0.0367422
  808      685.604    0.0355229
  809      685.989    0.0341389
  810      686.374    0.0325828
  811      686.759    0.0309362
  812      687.143    0.0293454
  813      687.528    0.0278571
  814      687.912    0.0264879
  815      688.296    0.0251678
  816       688.68    0.0239243
  817      689.064    0.0228265
  818      689.448    0.0217967
  819      689.832    0.0208347
  820      690.216    0.0199685
  821      690.599    0.0192744
  822      690.983     0.018733
  823      691.366    0.0182695
  824      691.749    0.0178848
  825      692.132     0.017512
  826      692.515    0.0171879
  827      692.898    0.0168543
  828      693.281    0.0164511
  829      693.664    0.0161343
  830      694.046    0.0159087
  831      694.429    0.0156617
  832      694.811    0.0153169
  833      695.193    0.0149044
  834      695.575    0.0144801
  835      695.958    0.0139464
  836      696.339    0.0133528
  837      696.721    0.0128215
  838      697.103    0.0123215
  839      697.485    0.0118311
  840      697.866    0.0113104
  841      698.247    0.0108313
  842      698.629    0.0104749
  843       699.01    0.0101979
  844      699.391   0.00996714
  845      699.772   0.00966758
  846      700.153   0.00925798
  847      700.533   0.00880894
  848      700.914   0.00832974
  849      701.295   0.00778841
  850      701.675   0.00728427
  851      702.055   0.00689521
  852      702.435   0.00653247
  853      702.816   0.00614119
  854      703.195   0.00579969
  855      703.575   0.00552607
  856      703.955   0.00533796
  857      704.335   0.00527203
  858      704.714   0.00531863
  859      705.094   0.00547985
  860      705.473   0.00574095
  861      705.852   0.00601867
  862      706.231   0.00625586
  863       706.61   0.00644658
  864      706.989   0.00655975
  865      707.368   0.00662473
  866      707.746   0.00665228
  867      708.125   0.00661992
  868      708.503   0.00661981
  869      708.882   0.00670866
  870       709.26   0.00680751
  871      709.638    0.0069322
  872      710.016   0.00711228
  873      710.394   0.00734772
  874      710.772   0.00768118
  875      711.149   0.00824039
  876      711.527   0.00894439
  877      711.904   0.00968332
  878      712.282    0.0105054
  879      712.659    0.0112292
  880      713.036    0.0118438
  881      713.413    0.0124836
  882       713.79    0.0131139
  883      714.167    0.0136451
  884      714.543    0.0140462
  885       714.92    0.0144487
  886      715.296    0.0148604
  887      715.673    0.0152787
  888      716.049    0.0156935
  889      716.425    0.0161841
  890      716.801    0.0169126
  891      717.177    0.0177138
  892      717.553    0.0184446
  893      717.928    0.0191715
  894      718.304    0.0199845
  895      718.679    0.0209595
  896      719.055    0.0219608
  897       719.43    0.0228279
  898      719.805    0.0235621
  899       720.18    0.0242703
  900      720.555    0.0249284
  901       720.93    0.0255721
  902      721.304    0.0263061
  903      721.679    0.0271483
  904      722.053    0.0280542
  905      722.428    0.0290459
  906      722.802    0.0301112
  907      723.176    0.0312166
  908       723.55    0.0323851
  909      723.924    0.0336947
  910      724.298    0.0351755
  911      724.671    0.0367749
  912      725.045    0.0384995
  913      725.418    0.0402745
  914      725.792    0.0420412
  915      726.165    0.0438062
  916      726.538    0.0455458
  917      726.911    0.0471667
  918      727.284    0.0487107
  919      727.657    0.0503766
  920      728.029    0.0521896
  921      728.402    0.0541535
  922      728.774    0.0562809
  923      729.147    0.0585048
  924      729.519    0.0608649
  925      729.891    0.0632865
  926      730.263    0.0657446
  927      730.635    0.0682575
  928      731.007    0.0708642
  929      731.378    0.0734425
  930       731.75    0.0758805
  931      732.121    0.0782133
  932      732.493    0.0804024
  933      732.864    0.0823756
  934      733.235    0.0840216
  935      733.606    0.0853001
  936      733.977    0.0864413
  937      734.348    0.0874869
  938      734.718    0.0883082
  939      735.089    0.0889717
  940      735.459    0.0896291
  941       735.83    0.0902688
  942        736.2    0.0907062
  943       736.57    0.0910083
  944       736.94    0.0912085
  945       737.31    0.0913034
  946      737.679    0.0914091
  947      738.049    0.0914016
  948      738.419     0.091153
  949      738.788    0.0907039
  950      739.157    0.0901753
  951      739.527    0.0895437
  952      739.896    0.0888296
  953      740.265    0.0881843
  954      740.634    0.0874371
  955      741.002    0.0865858
  956      741.371    0.0857509
  957      741.739    0.0849266
  958      742.108    0.0841154
  959      742.476    0.0833872
  960      742.844    0.0828134
  961      743.212    0.0822076
  962       743.58    0.0816476
  963      743.948     0.081167
  964      744.316    0.0806854
  965      744.684    0.0803387
  966      745.051    0.0801225
  967      745.418    0.0800382
  968      745.786    0.0800809
  969      746.153    0.0803045
  970       746.52    0.0807077
  971      746.887    0.0813275
  972      747.254    0.0822839
  973       747.62    0.0834769
  974      747.987    0.0847918
  975      748.354    0.0861958
  976       748.72    0.0876624
  977      749.086    0.0891876
  978      749.452    0.0907842
  979      749.818    0.0924506
  980      750.184     0.094198
  981       750.55    0.0960844
  982      750.916    0.0979586
  983      751.281    0.0997202
  984      751.647     0.101475
  985      752.012     0.103318
  986      752.377     0.105266
  987      752.743     0.107307
  988      753.108      0.10941
  989      753.473     0.111551
  990      753.837     0.113681
  991      754.202     0.115611
  992      754.567      0.11724
  993      754.931     0.118702
  994      755.295     0.120065
  995       755.66     0.121328
  996      756.024     0.122505
  997      756.388     0.123514
  998      756.752      0.12421
  999      757.115     0.124628
 1000      757.479     0.124834
 1001      757.843     0.124853
 1002      758.206     0.124861
 1003      758.569     0.124931
 1004      758.932     0.124986
 1005      759.296     0.125061
 1006      759.659     0.125135
 1007      760.021     0.124981
 1008      760.384     0.124701
 1009      760.747     0.124547
 1010      761.109     0.124459
 1011      761.472     0.124349
 1012      761.834     0.124237
 1013      762.196     0.124134
 1014      762.558     0.124157
 1015       762.92     0.124251
 1016      763.282     0.124303
 1017      763.644     0.124238
 1018      764.005     0.124172
 1019      764.367     0.124204
 1020      764.728     0.124215
 1021      765.089     0.124266
 1022      765.451     0.124288
 1023      765.812      0.12426
 1024      766.172     0.124259
 1025      766.533      0.12425
 1026      766.894     0.124252
 1027      767.255     0.124177
 1028      767.615     0.123966
 1029      767.975     0.123738
 1030      768.336     0.123533
 1031      768.696     0.123386
 1032      769.056     0.123173
 1033      769.416     0.123043
 1034      769.775     0.123026
 1035      770.135     0.122824
 1036      770.494     0.122471
 1037      770.854     0.122212
 1038      771.213       0.1221
 1039      771.572     0.122122
 1040      771.931      0.12213
 1041       772.29     0.122001
 1042      772.649     0.121761
 1043      773.008     0.121554
 1044      773.367     0.121353
 1045      773.725     0.121234
 1046      774.083     0.121345
 1047      774.442     0.121506
 1048        774.8     0.121502
 1049      775.158     0.121305
 1050      775.516     0.120981
 1051      775.874     0.120673
 1052      776.231     0.120347
 1053      776.589      0.12003
 1054      776.946      0.11982
 1055      777.304     0.119623
 1056      777.661     0.119294
 1057      778.018     0.118815
 1058      778.375     0.118327
 1059      778.732     0.117921
 1060      779.089      0.11767
 1061      779.445     0.117595
 1062      779.802     0.117617
 1063      780.158     0.117837
 1064      780.515     0.118135
 1065      780.871     0.118294
 1066      781.227     0.118367
 1067      781.583     0.118276
 1068      781.939     0.118191
 1069      782.294     0.118215
 1070       782.65     0.118154
 1071      783.006     0.117943
 1072      783.361     0.117709
 1073      783.716     0.117603
 1074      784.071     0.117397
 1075      784.426     0.117027
 1076      784.781     0.116833
 1077      785.136     0.116773
 1078      785.491     0.116842
 1079      785.845     0.117012
 1080        786.2     0.117031
 1081      786.554     0.117124
 1082      786.908     0.117286
 1083      787.262     0.117274
 1084      787.616     0.117149
 1085       787.97     0.117166
 1086      788.324     0.117303
 1087      788.678     0.117256
 1088      789.031     0.117105
 1089      789.385     0.117013
 1090      789.738     0.116818
 1091      790.091     0.116607
 1092      790.444     0.116406
 1093      790.797     0.116326
 1094       791.15     0.116485
 1095      791.503     0.116662
 1096      791.855     0.116699
 1097      792.208     0.116655
 1098       792.56     0.116668
 1099      792.912     0.116733
 1100      793.264     0.116707
 1101      793.616     0.116726
 1102      793.968     0.116897
 1103       794.32     0.117032
 1104      794.672     0.117041
 1105      795.023     0.117078
 1106      795.375     0.117198
 1107      795.726     0.117202
 1108      796.077     0.117238
 1109      796.428     0.117214
 1110      796.779      0.11683
 1111       797.13      0.11636
 1112      797.481     0.115955
 1113      797.831     0.115658
 1114      798.182     0.115459
 1115      798.532     0.115335
 1116      798.882     0.115122
 1117      799.232     0.114711
 1118      799.582     0.114417
 1119      799.932     0.114101
 1120      800.282      0.11383
 1121      800.632     0.113954
 1122      800.981     0.114175
 1123      801.331     0.114288
 1124       801.68     0.114227
 1125      802.029     0.114167
 1126      802.378     0.114121
 1127      802.727     0.114001
 1128      803.076     0.113864
 1129      803.425     0.113549
 1130      803.773     0.113398
 1131      804.122     0.113384
 1132       804.47     0.113309
 1133      804.818     0.113415
 1134      805.167       0.1137
 1135      805.515     0.113975
 1136      805.862     0.113989
 1137       806.21     0.113812
 1138      806.558     0.113791
 1139      806.905     0.114019
 1140      807.253     0.114469
 1141        807.6     0.114786
 1142      807.947     0.114902
 1143      808.294     0.115013
 1144      808.641     0.114969
 1145      808.988     0.114796
 1146      809.335     0.114623
 1147      809.682      0.11453
 1148      810.028     0.114533
 1149      810.374     0.114617
 1150      810.721     0.114491
 1151      811.067     0.114257
 1152      811.413     0.114071
 1153      811.759     0.113832
 1154      812.104     0.113576
 1155       812.45     0.113265
 1156      812.796     0.113025
 1157      813.141     0.112926
 1158      813.486     0.112864
 1159      813.831     0.112793
 1160      814.176     0.112497
 1161      814.521     0.112347
 1162      814.866     0.112272
 1163      815.211     0.112021
 1164      815.555     0.112015
 1165        815.9     0.111985
 1166      816.244     0.111903
 1167      816.589     0.111908
 1168      816.933     0.111926
 1169      817.277     0.112063
 1170       817.62     0.112302
 1171      817.964     0.112577
 1172      818.308     0.112718
 1173      818.651     0.112767
 1174      818.995     0.112886
 1175      819.338     0.112797
 1176      819.681     0.112597
 1177      820.024      0.11248
 1178      820.367     0.112211
 1179       820.71     0.111801
 1180      821.053     0.111424
 1181      821.395     0.110892
 1182      821.738     0.110195
 1183       822.08     0.109537
 1184      822.422     0.109014
 1185      822.764     0.108606
 1186      823.106     0.108352
 1187      823.448     0.108336
 1188       823.79     0.108272
 1189      824.131     0.108074
 1190      824.473      0.10773
 1191      824.814     0.107383
 1192      825.155     0.107283
 1193      825.496     0.107216
 1194      825.837     0.107122
 1195      826.178     0.107001
 1196      826.519     0.106825
 1197       826.86     0.106816
 1198        827.2     0.106757
 1199      827.541     0.106832
 1200      827.881     0.106977
 1201      828.221     0.107077
 1202      828.561     0.107137
 1203      828.901     0.107157
 1204      829.241     0.107452
 1205      829.581     0.107672
 1206       829.92     0.107878
 1207       830.26     0.108169
 1208      830.599     0.108115
 1209      830.938     0.107752
 1210      831.277     0.107246
 1211      831.616     0.106969
 1212      831.955     0.106784
 1213      832.294     0.106422
 1214      832.632     0.106025
 1215      832.971     0.105609
 1216      833.309     0.105263
 1217      833.647      0.10457
 1218      833.986     0.103861
 1219      834.324     0.103736
 1220      834.661     0.103845
 1221      834.999     0.103843
 1222      835.337     0.103821
 1223      835.674     0.103939
 1224      836.012     0.104105
 1225      836.349     0.104267
 1226      836.686     0.104295
 1227      837.023     0.104266
 1228       837.36     0.104646
 1229      837.697     0.105191
 1230      838.034     0.105355
 1231       838.37     0.105366
 1232      838.707     0.105481
 1233      839.043     0.105623
 1234      839.379     0.105799
 1235      839.715     0.105824
 1236      840.051     0.105725
 1237      840.387     0.105647
 1238      840.723     0.105462
 1239      841.058     0.105255
 1240      841.394     0.105009
 1241      841.729     0.104519
 1242      842.064     0.104088
 1243      842.399     0.103991
 1244      842.734     0.103805
 1245      843.069     0.103393
 1246      843.404     0.103167
 1247      843.739     0.103127
 1248      844.073     0.103017
 1249      844.408     0.103046
 1250      844.742     0.103051
 1251      845.076      0.10295
 1252       845.41     0.102893
 1253      845.744     0.102939
 1254      846.078     0.102916
 1255      846.411     0.102795
 1256      846.745     0.102967
 1257      847.078     0.103248
 1258      847.411     0.103102
 1259      847.745     0.102877
 1260      848.078     0.102868
 1261      848.411     0.102915
 1262      848.743     0.102725
 1263      849.076     0.102719
 1264      849.409     0.102846
 1265      849.741     0.102729
 1266      850.073     0.102665
 1267      850.406     0.102537
 1268      850.738     0.102261
 1269       851.07     0.102318
 1270      851.401     0.102546
 1271      851.733     0.102524
 1272      852.065     0.102292
 1273      852.396     0.102087
 1274      852.727     0.101987
 1275      853.059     0.101717
 1276       853.39     0.101447
 1277      853.721     0.101333
 1278      854.052     0.101234
 1279      854.382     0.101188
 1280      854.713     0.101085
 1281      855.043     0.101162
 1282      855.374     0.101191
 1283      855.704     0.101144
 1284      856.034     0.101272
 1285      856.364     0.101161
 1286      856.694     0.101089
 1287      857.024     0.101309
 1288      857.353     0.101403
 1289      857.683     0.101209
 1290      858.012       0.1009
 1291      858.341     0.100791
 1292      858.671      0.10052
 1293          859     0.100396
 1294      859.329      0.10054
 1295      859.657     0.100605
 1296      859.986     0.100751
 1297      860.314     0.100955
 1298      860.643     0.101062
 1299      860.971     0.101331
 1300      861.299     0.101925
 1301      861.627     0.102666
 1302      861.955     0.103188
 1303      862.283      0.10356
 1304      862.611     0.103886
 1305      862.938     0.104168
 1306      863.266     0.104451
 1307      863.593     0.104728
 1308       863.92     0.105059
 1309      864.247     0.105366
 1310      864.574     0.105456
 1311      864.901     0.105434
 1312      865.228     0.105458
 1313      865.554      0.10536
 1314      865.881     0.105242
 1315      866.207     0.105051
 1316      866.533     0.104856
 1317      866.859     0.104773
 1318      867.185     0.104663
 1319      867.511     0.104484
 1320      867.837     0.104336
 1321      868.162     0.104204
 1322      868.488      0.10411
 1323      868.813      0.10413
 1324      869.138     0.104425
 1325      869.463     0.104957
 1326      869.788     0.105428
 1327      870.113      0.10563
 1328      870.438     0.105843
 1329      870.762     0.106286
 1330      871.087       0.1068
 1331      871.411     0.106977
 1332      871.735     0.106945
 1333      872.059     0.106833
 1334      872.383     0.106496
 1335      872.707     0.105932
 1336      873.031     0.105301
 1337      873.354     0.104993
 1338      873.678     0.105144
 1339      874.001     0.105289
 1340      874.324     0.105331
 1341      874.647     0.105486
 1342       874.97     0.105796
 1343      875.293     0.106052
 1344      875.616     0.106315
 1345      875.939     0.106761
 1346      876.261     0.107057
 1347      876.583     0.107093
 1348      876.906     0.107243
 1349      877.228     0.107357
 1350       877.55     0.107242
 1351      877.872      0.10717
 1352      878.193     0.107145
 1353      878.515     0.107119
 1354      878.836     0.106847
 1355      879.158     0.106358
 1356      879.479     0.105922
 1357        879.8     0.105892
 1358      880.121     0.106112
 1359      880.442     0.106052
 1360      880.763     0.105795
 1361      881.083     0.105425
 1362      881.404      0.10467
 1363      881.724     0.103424
 1364      882.044     0.102181
 1365      882.364     0.101551
 1366      882.684     0.101595
 1367      883.004     0.101756
 1368      883.324     0.101797
 1369      883.644     0.101936
 1370      883.963     0.102214
 1371      884.282     0.102802
 1372      884.602     0.103546
 1373      884.921      0.10388
 1374       885.24     0.104283
 1375      885.559     0.104707
 1376      885.877     0.105251
 1377      886.196     0.105924
 1378      886.514     0.106583
 1379      886.833     0.107309
 1380      887.151      0.10776
 1381      887.469     0.107899
 1382      887.787     0.107586
 1383      888.105     0.107609
 1384      888.423      0.10826
 1385       888.74      0.10901
 1386      889.058     0.109873
 1387      889.375     0.110766
 1388      889.692      0.11117
 1389       890.01     0.111082
 1390      890.327     0.110619
 1391      890.643      0.11036
 1392       890.96     0.110544
 1393      891.277     0.110837
 1394      891.593     0.110635
 1395       891.91     0.110595
 1396      892.226     0.110634
 1397      892.542      0.11047
 1398      892.858     0.110368
 1399      893.174     0.109702
 1400      893.489     0.108802
 1401      893.805     0.108885
 1402       894.12     0.109056
 1403      894.436     0.109027
 1404      894.751      0.10904
 1405      895.066     0.109332
 1406      895.381     0.109475
 1407      895.696     0.109474
 1408      896.011     0.109901
 1409      896.325     0.110179
 1410       896.64     0.111464
 1411      896.954     0.113119
 1412      897.268     0.113752
 1413      897.582     0.114464
 1414      897.896     0.115369
 1415       898.21     0.115716
 1416      898.524     0.115561
 1417      898.837     0.115572
 1418      899.151     0.115767
 1419      899.464     0.115237
 1420      899.777     0.114428
 1421      900.091     0.113253
 1422      900.403     0.112588
 1423      900.716     0.112235
 1424      901.029     0.112199
 1425      901.342     0.112478
 1426      901.654     0.113066
 1427      901.966     0.114049
 1428      902.279     0.115199
 1429      902.591     0.116582
 1430      902.903     0.118139
 1431      903.214     0.119922
 1432      903.526     0.121598
 1433      903.838     0.123345
 1434      904.149     0.124871
 1435       904.46     0.124541
 1436      904.771     0.122584
 1437      905.083     0.121173
 1438      905.393      0.12057
 1439      905.704     0.120037
 1440      906.015     0.120021
 1441      906.325     0.120345
 1442      906.636     0.119351
 1443      906.946     0.117319
 1444      907.256     0.113924
 1445      907.566     0.110996
 1446      907.876      0.11046
 1447      908.186       0.1116
 1448      908.496     0.112456
 1449      908.805     0.111879
 1450      909.115     0.111702
 1451      909.424     0.110848
 1452      909.733     0.110544
 1453      910.042     0.112948
 1454      910.351     0.116455
 1455       910.66     0.119998
 1456      910.968     0.122378
 1457      911.277     0.123524
 1458      911.585     0.124033
 1459      911.893     0.124652
 1460      912.202      0.12832
 1461       912.51     0.131788
 1462      912.817     0.134867
 1463      913.125     0.136337
 1464      913.433     0.134603
 1465       913.74     0.133817
 1466      914.048     0.134005
 1467      914.355     0.135004
 1468      914.662     0.136358
 1469      914.969     0.137751
 1470      915.276     0.137809
 1471      915.583     0.135366
 1472      915.889     0.131083
 1473      916.196     0.128269
 1474      916.502     0.129025
 1475      916.808     0.130998
 1476      917.114     0.130246
 1477       917.42     0.128839
 1478      917.726     0.127499
 1479      918.032     0.125424
 1480      918.337     0.123476
 1481      918.643     0.125254
 1482      918.948     0.129399
 1483      919.253     0.131838
 1484      919.558     0.129183
 1485      919.863     0.121316
 1486      920.168     0.109664
 1487      920.473     0.100042
 1488      920.777    0.0925415
 1489      921.082    0.0830904
 1490      921.386    0.0769829
 1491       921.69    0.0714142
 1492      921.994    0.0640332
 1493      922.298    0.0560063
 1494      922.602    0.0508184
 1495      922.905    0.0505143
 1496      923.209    0.0512379
 1497      923.512    0.0550493
 1498      923.816     0.058872
 1499      924.119    0.0628104
 1500      924.422    0.0730336
 1501      924.724    0.0836661
 1502      925.027    0.0926166
 1503       925.33    0.0983751
 1504      925.632     0.103517
 1505      925.935     0.108593
 1506      926.237     0.108968
 1507      926.539     0.112125
 1508      926.841     0.116135
 1509      927.143     0.121429
 1510      927.445     0.133423
 1511      927.746     0.144552
 1512      928.048     0.147928
 1513      928.349     0.152724
 1514       928.65     0.163511
 1515      928.951     0.172893
 1516      929.252     0.180094
 1517      929.553     0.187929
 1518      929.854      0.18449
 1519      930.154     0.182215
 1520      930.454     0.180928
 1521      930.755     0.167496
 1522      931.055     0.158937
 1523      931.355       0.1615
 1524      931.655     0.161352
 1525      931.955     0.156239
 1526      932.254     0.148269
 1527      932.554     0.142549
 1528      932.853     0.140395
 1529      933.152     0.148005
 1530      933.452     0.155035
 1531      933.751     0.159118
 1532      934.049     0.170995
 1533      934.348     0.178053
 1534      934.647     0.169472
 1535      934.945     0.159223
 1536      935.244     0.152063
 1537      935.542     0.149588
 1538       935.84     0.151735
 1539      936.138     0.150456
 1540      936.436     0.145264
 1541      936.733      0.13667
 1542      937.031     0.120202
 1543      937.328    0.0998388
 1544      937.626    0.0795052
 1545      937.923    0.0650911
 1546       938.22    0.0487172
 1547      938.517    0.0358487
 1548      938.814    0.0257219
 1549       939.11   0.00998716
 1550      939.407     0.001942
 1551      939.703   -0.0017075
 1552      939.999  -0.00359088
 1553      940.295    0.0124395
 1554      940.591    0.0372481
 1555      940.887    0.0616217
 1556      941.183    0.0763974
 1557      941.479    0.0889883
 1558      941.774     0.102504
 1559       942.07     0.113954
 1560      942.365     0.126339
 1561       942.66     0.127993
 1562      942.955     0.124309
 1563       943.25     0.124871
 1564      943.544     0.116238
 1565      943.839      0.10324
 1566      944.133    0.0964603
 1567      944.428    0.0975561
 1568      944.722      0.10099
 1569      945.016     0.103441
 1570       945.31     0.114012
 1571      945.604     0.122605
 1572      945.897     0.137643
 1573      946.191     0.162802
 1574      946.484     0.191059
 1575      946.777     0.224809
 1576       947.07     0.248488
 1577      947.363     0.253692
 1578      947.656     0.250646
 1579      947.949     0.245306
 1580      948.242     0.230755
 1581      948.534     0.212999
 1582      948.826     0.206183
 1583      949.119     0.193624
 1584      949.411     0.173323
 1585      949.703     0.155724
 1586      949.995     0.144235
 1587      950.286     0.135493
 1588      950.578     0.133004
 1589      950.869     0.133957
 1590       951.16      0.13138
 1591      951.452     0.132207
 1592      951.743     0.124809
 1593      952.034     0.111736
 1594      952.324     0.115769
 1595      952.615     0.134821
 1596      952.905     0.132645
 1597      953.196     0.122319
 1598      953.486     0.115843
 1599      953.776     0.102043
 1600      954.066     0.096845
 1601      954.356     0.107154
 1602      954.646     0.119173
 1603      954.935     0.133377
 1604      955.225     0.145708
 1605      955.514     0.150943
 1606      955.803     0.146774
 1607      956.092     0.154419
 1608      956.381      0.15922
 1609       956.67     0.159597
 1610      956.959      0.17067
 1611      957.247     0.170953
 1612      957.536     0.172063
 1613      957.824     0.174904
 1614      958.112     0.168256
 1615        958.4     0.158241
 1616      958.688     0.147906
 1617      958.976     0.142767
 1618      959.263     0.144209
 1619      959.551     0.149169
 1620      959.838     0.163513
 1621      960.125     0.167966
 1622      960.412     0.169942
 1623      960.699      0.17329
 1624      960.986     0.181114
 1625      961.273     0.197072
 1626      961.559     0.210881
 1627      961.846     0.221995
 1628      962.132     0.229875
 1629      962.418     0.233766
 1630      962.704      0.23313
 1631       962.99     0.221098
 1632      963.276     0.215779
 1633      963.561     0.216671
 1634      963.847     0.207148
 1635      964.132     0.187748
 1636      964.417     0.163881
 1637      964.702     0.143728
 1638      964.987     0.123892
 1639      965.272     0.108061
 1640      965.557    0.0918586
 1641      965.841    0.0735815
 1642      966.126     0.052959
 1643       966.41    0.0323829
 1644      966.694    0.0185872
 1645      966.978   0.00811789
 1646      967.262  -0.00633137
 1647      967.546   -0.0237083
 1648      967.829   -0.0324061
 1649      968.113   -0.0251038
 1650      968.396   -0.0143978
 1651      968.679  -0.00862763
 1652      968.963   -0.0028252
 1653      969.245    0.0120754
 1654      969.528    0.0240776
 1655      969.811    0.0416683
 1656      970.094     0.054227
 1657      970.376    0.0698435
 1658      970.658    0.0982341
 1659       970.94     0.114088
 1660      971.222     0.114648
 1661      971.504     0.114433
 1662      971.786     0.112607
 1663      972.068     0.112413
 1664      972.349     0.110272
 1665       972.63     0.104147
 1666      972.912    0.0848543
 1667      973.193    0.0726219
 1668      973.474    0.0800765
 1669      973.755    0.0876266
 1670      974.035      0.10225
 1671      974.316     0.111311
 1672      974.596     0.114612
 1673      974.876     0.127038
 1674      975.157     0.155397
 1675      975.437     0.184767
 1676      975.716     0.204507
 1677      975.996     0.214911
 1678      976.276     0.227737
 1679      976.555     0.234912
 1680      976.835     0.236189
 1681      977.114     0.244342
 1682      977.393     0.261244
 1683      977.672      0.27051
 1684      977.951     0.267178
 1685      978.229     0.250275
 1686      978.508     0.236479
 1687      978.786     0.231704
 1688      979.065     0.228736
 1689      979.343     0.220327
 1690      979.621     0.196133
 1691      979.898     0.166447
 1692      980.176     0.132317
 1693      980.454     0.107329
 1694      980.731    0.0961967
 1695      981.009    0.0918793
 1696      981.286    0.0867952
 1697      981.563    0.0828768
 1698       981.84    0.0803108
 1699      982.117    0.0844846
 1700      982.393    0.0799938
 1701       982.67    0.0757594
 1702      982.946    0.0924571
 1703      983.222      0.11856
 1704      983.498     0.135925
 1705      983.774     0.142638
 1706       984.05     0.154921
 1707      984.326     0.170604
 1708      984.602     0.178373
 1709      984.877     0.184904
 1710      985.152      0.18786
 1711      985.427     0.196948
 1712      985.703     0.212219
 1713      985.977     0.214893
 1714      986.252     0.206582
 1715      986.527     0.189056
 1716      986.801     0.172848
 1717      987.076     0.156868
 1718       987.35     0.146026
 1719      987.624     0.134379
 1720      987.898     0.123197
 1721      988.172     0.121738
 1722      988.445     0.127037
 1723      988.719     0.135974
 1724      988.992     0.147557
 1725      989.266     0.162741
 1726      989.539     0.189801
 1727      989.812     0.212655
 1728      990.085     0.216527
 1729      990.357     0.204899
 1730       990.63     0.193125
 1731      990.902      0.18656
 1732      991.175     0.181192
 1733      991.447     0.174714
 1734      991.719     0.156225
 1735      991.991     0.129186
 1736      992.263    0.0999738
 1737      992.534    0.0720758
 1738      992.806    0.0504274
 1739      993.077    0.0285632
 1740      993.348    0.0121539
 1741       993.62    0.0026321
 1742      993.891  -0.00683007
 1743      994.161   -0.0279984
 1744      994.432   -0.0507783
 1745      994.703   -0.0668085
 1746      994.973   -0.0689621
 1747      995.243   -0.0542283
 1748      995.513    -0.034091
 1749      995.784   -0.0161295
 1750      996.053   0.00842202
 1751      996.323    0.0380945
 1752      996.593     0.059502
 1753      996.862    0.0757508
 1754      997.132    0.0968735
 1755      997.401     0.111812
 1756       997.67     0.122518
 1757      997.939     0.140912
 1758      998.208     0.155654
 1759      998.476     0.171252
 1760      998.745     0.192444
 1761      999.013     0.213789
 1762      999.281      0.22355
 1763      999.549     0.238485
 1764      999.817     0.258228
 1765      1000.09      0.26596
 1766      1000.35     0.244439
 1767      1000.62      0.21535
 1768      1000.89     0.182558
 1769      1001.16     0.155938
 1770      1001.42      0.13074
 1771      1001.69     0.110929
 1772      1001.96    0.0910984
 1773      1002.22    0.0822795
 1774      1002.49    0.0785299
 1775      1002.76    0.0784118
 1776      1003.02    0.0807156
 1777      1003.29    0.0921958
 1778      1003.55     0.111251
 1779      1003.82     0.130452
 1780      1004.09     0.146233
 1781      1004.35     0.164364
 1782      1004.62     0.187462
 1783      1004.88     0.209408
 1784      1005.15     0.216108
 1785      1005.41     0.206202
 1786      1005.68     0.191197
 1787      1005.94     0.187717
 1788      1006.21     0.191529
 1789      1006.47     0.189418
 1790      1006.74     0.188685
 1791         1007     0.183454
 1792      1007.26     0.161504
 1793      1007.53      0.12816
 1794      1007.79     0.103993
 1795      1008.06    0.0864998
 1796      1008.32    0.0740788
 1797      1008.58    0.0678458
 1798      1008.85    0.0562396
 1799      1009.11    0.0451934
 1800      1009.37    0.0448913
 1801      1009.64    0.0350459
 1802       1009.9    0.0169162
 1803      1010.16   0.00882661
 1804      1010.42   0.00462555
 1805      1010.69   0.00762111
 1806      1010.95    0.0149047
 1807      1011.21    0.0220696
 1808      1011.47    0.0297811
 1809      1011.73    0.0460962
 1810         1012    0.0664511
 1811      1012.26    0.0802483
 1812      1012.52    0.0899377
 1813      1012.78     0.106837
 1814      1013.04      0.12135
 1815       1013.3     0.130184
 1816      1013.56     0.121212
 1817      1013.82     0.100015
 1818      1014.08    0.0866629
 1819      1014.34    0.0772479
 1820       1014.6    0.0579322
 1821      1014.86    0.0455744
 1822      1015.12    0.0471947
 1823      1015.38    0.0565569
 1824      1015.64    0.0659486
 1825       1015.9    0.0781096
 1826      1016.16    0.0950105
 1827      1016.42     0.117253
 1828      1016.68     0.140549
 1829      1016.94     0.147265
 1830       1017.2      0.15412
 1831      1017.46     0.182856
 1832      1017.72     0.202724
 1833      1017.98     0.198101
 1834      1018.23     0.186848
 1835      1018.49     0.181638
 1836      1018.75     0.180814
 1837      1019.01     0.179702
 1838      1019.27     0.192116
 1839      1019.52     0.201108
 1840      1019.78     0.207446
 1841      1020.04     0.214868
 1842       1020.3     0.200729
 1843      1020.55     0.191012
 1844      1020.81     0.193928
 1845      1021.07     0.211067
 1846      1021.32     0.215915
 1847      1021.58     0.206894
 1848      1021.84     0.194231
 1849      1022.09     0.166312
 1850      1022.35     0.147878
 1851       1022.6     0.137302
 1852      1022.86     0.111646
 1853      1023.12     0.100696
 1854      1023.37     0.102134
 1855      1023.63     0.101175
 1856      1023.88    0.0982443
 1857      1024.14    0.0984946
 1858      1024.39     0.106898
 1859      1024.65     0.128891
 1860       1024.9     0.156792
 1861      1025.16     0.184415
 1862      1025.41     0.215486
 1863      1025.67     0.260756
 1864      1025.92     0.297262
 1865      1026.17     0.311198
 1866      1026.43     0.306184
 1867      1026.68     0.269777
 1868      1026.93     0.229323
 1869      1027.19     0.201914
 1870      1027.44     0.163655
 1871      1027.69     0.135886
 1872      1027.95     0.121472
 1873       1028.2     0.119385
 1874      1028.45     0.131367
 1875      1028.71       0.1556
 1876      1028.96     0.187537
 1877      1029.21     0.217751
 1878      1029.46     0.250539
 1879      1029.71     0.286884
 1880      1029.97     0.309319
 1881      1030.22     0.331593
 1882      1030.47     0.350642
 1883      1030.72      0.35515
 1884      1030.97     0.338997
 1885      1031.22     0.306401
 1886      1031.48     0.262313
 1887      1031.73     0.225623
 1888      1031.98      0.19651
 1889      1032.23     0.172927
 1890      1032.48     0.149448
 1891      1032.73     0.124981
 1892      1032.98    0.0981245
 1893      1033.23    0.0726911
 1894      1033.48    0.0538459
 1895      1033.73    0.0419741
 1896      1033.98    0.0315682
 1897      1034.23    0.0208338
 1898      1034.48   0.00770019
 1899      1034.73  -0.00183958
 1900      1034.98  -0.00529444
 1901      1035.22   0.00467768
 1902      1035.47    0.0231791
 1903      1035.72    0.0550203
 1904      1035.97    0.0841039
 1905      1036.22     0.106625
 1906      1036.47     0.135484
 1907      1036.72     0.171287
 1908      1036.96      0.18732
 1909      1037.21     0.187261
 1910      1037.46     0.197507
 1911      1037.71     0.215548
 1912      1037.95     0.227012
 1913       1038.2     0.239624
 1914      1038.45     0.239238
 1915       1038.7     0.235522
 1916      1038.94     0.226946
 1917      1039.19     0.202695
 1918      1039.44     0.177637
 1919      1039.68     0.165201
 1920      1039.93     0.161884
 1921      1040.17     0.162859
 1922      1040.42     0.158403
 1923      1040.67     0.153104
 1924      1040.91     0.137859
 1925      1041.16     0.130618
 1926       1041.4     0.142537
 1927      1041.65     0.164435
 1928      1041.89     0.190002
 1929      1042.14     0.201184
 1930      1042.38     0.207343
 1931      1042.63     0.216232
 1932      1042.87     0.226757
 1933      1043.12     0.239984
 1934      1043.36     0.242106
 1935      1043.61      0.25381
 1936      1043.85     0.262229
 1937      1044.09     0.247417
 1938      1044.34     0.215679
 1939      1044.58     0.188069
 1940      1044.82     0.179517
 1941      1045.07     0.182595
 1942      1045.31     0.190101
 1943      1045.55     0.180465
 1944       1045.8     0.155176
 1945      1046.04     0.135375
 1946      1046.28     0.113027
 1947      1046.53     0.094099
 1948      1046.77    0.0807622
 1949      1047.01    0.0768345
 1950      1047.25    0.0859146
 1951      1047.49    0.0874512
 1952      1047.74    0.0742225
 1953      1047.98    0.0654738
 1954      1048.22    0.0610197
 1955      1048.46    0.0625486
 1956       1048.7    0.0730441
 1957      1048.94    0.0860804
 1958      1049.18    0.0982113
 1959      1049.42     0.110475
 1960      1049.66     0.128583
 1961       1049.9     0.137953
 1962      1050.15     0.144103
 1963      1050.39     0.160883
 1964      1050.63     0.175103
 1965      1050.87     0.194679
 1966      1051.11      0.21599
 1967      1051.34     0.217873
 1968      1051.58     0.205463
 1969      1051.82     0.193004
 1970      1052.06     0.187401
 1971       1052.3     0.180237
 1972      1052.54     0.172119
 1973      1052.78     0.168509
 1974      1053.02     0.167131
 1975      1053.26     0.159927
 1976      1053.49     0.147517
 1977      1053.73     0.146544
 1978      1053.97     0.158327
 1979      1054.21     0.167772
 1980      1054.45     0.166975
 1981      1054.68     0.168372
 1982      1054.92     0.176999
 1983      1055.16     0.188575
 1984       1055.4     0.194355
 1985      1055.63     0.199275
 1986      1055.87     0.204382
 1987      1056.11     0.211609
 1988      1056.34     0.206945
 1989      1056.58      0.19266
 1990      1056.82      0.18471
 1991      1057.05     0.177064
 1992      1057.29     0.154402
 1993      1057.52     0.122981
 1994      1057.76    0.0883478
 1995         1058    0.0613862
 1996      1058.23    0.0261731
 1997      1058.47  -0.00758336
 1998       1058.7   -0.0287267
 1999      1058.94     -0.03283
 2000      1059.17   -0.0250044
 2001      1059.41   -0.0172551
 2002      1059.64  -0.00642084
 2003      1059.88   0.00892628
 2004      1060.11    0.0286065
 2005      1060.34    0.0538097
 2006      1060.58    0.0657457
 2007      1060.81    0.0754123
 2008      1061.05    0.0847732
 2009      1061.28    0.0976872
 2010      1061.51     0.103304
 2011      1061.75    0.0957998
 2012      1061.98    0.0915559
 2013      1062.21    0.0999781
 2014      1062.45     0.102467
 2015      1062.68    0.0884717
 2016      1062.91     0.075172
 2017      1063.14    0.0737918
 2018      1063.38    0.0790649
 2019      1063.61    0.0907708
 2020      1063.84    0.0939045
 2021      1064.07    0.0880383
 2022       1064.3     0.081426
 2023      1064.53     0.083688
 2024      1064.77    0.0861653
 2025         1065    0.0902163
 2026      1065.23    0.0981694
 2027      1065.46    0.0962853
 2028      1065.69    0.0918786
 2029      1065.92    0.0924598
 2030      1066.15    0.0931862
 2031      1066.38     0.101194
 2032      1066.61     0.132647
 2033      1066.84     0.175291
 2034      1067.07     0.203774
 2035       1067.3     0.216461
 2036      1067.53     0.233645
 2037      1067.76     0.265951
 2038      1067.99     0.296187
 2039      1068.22      0.32326
 2040      1068.45     0.344637
 2041      1068.68     0.349657
 2042      1068.91     0.340987
 2043      1069.14      0.31842
 2044      1069.36      0.27788
 2045      1069.59     0.248882
 2046      1069.82     0.226429
 2047      1070.05     0.192055
